# value	voltage [V]
0	0.003440
1	0.010320
2	0.016770
3	0.023650
4	0.030100
5	0.036550
6	0.043000
7	0.049880
8	0.057190
9	0.063640
10	0.070520
11	0.076970
12	0.083420
13	0.090300
14	0.096750
15	0.103630
16	0.110080
17	0.116960
18	0.123840
19	0.130290
20	0.137170
21	0.143620
22	0.150500
23	0.156950
24	0.163830
25	0.170280
26	0.177160
27	0.183610
28	0.190490
29	0.196940
30	0.203390
31	0.210270
32	0.216720
33	0.223600
34	0.230050
35	0.236930
36	0.243810
37	0.250260
38	0.257140
39	0.263590
40	0.270040
41	0.276490
42	0.283800
43	0.290250
44	0.296700
45	0.303580
46	0.310030
47	0.316480
48	0.323360
49	0.330240
50	0.336690
51	0.343140
52	0.350020
53	0.356470
54	0.363350
55	0.369800
56	0.376250
57	0.383130
58	0.390010
59	0.396890
60	0.402910
61	0.409790
62	0.416240
63	0.422690
64	0.429140
65	0.436020
66	0.442900
67	0.449350
68	0.455800
69	0.462680
70	0.469130
71	0.475580
72	0.482460
73	0.488910
74	0.495790
75	0.502240
76	0.509120
77	0.515570
78	0.522020
79	0.528470
80	0.535350
81	0.541800
82	0.548250
83	0.555130
84	0.562010
85	0.568460
86	0.574910
87	0.581360
88	0.588240
89	0.594690
90	0.601140
91	0.608020
92	0.614470
93	0.620920
94	0.627800
95	0.633820
96	0.641130
97	0.647150
98	0.653600
99	0.660910
100	0.667360
101	0.673810
102	0.680260
103	0.686710
104	0.693590
105	0.700470
106	0.706490
107	0.713370
108	0.719390
109	0.725840
110	0.732720
111	0.738740
112	0.745620
113	0.752930
114	0.758520
115	0.765400
116	0.771420
117	0.777870
118	0.785180
119	0.791200
120	0.796790
121	0.803670
122	0.810980
123	0.816140
124	0.823020
125	0.829900
126	0.834630
127	0.841940
128	0.848820
129	0.855700
130	0.862150
131	0.867740
132	0.873760
133	0.881500
134	0.887950
135	0.893110
136	0.899560
137	0.906440
138	0.911600
139	0.918910
140	0.924930
141	0.929660
142	0.936540
143	0.943420
144	0.950730
145	0.955030
146	0.962770
147	0.969650
148	0.973520
149	0.979970
150	0.987710
151	0.992010
152	1.000180
153	1.001900
154	1.011790
155	1.019100
156	1.022540
157	1.028990
158	1.033720
159	1.044900
160	1.049200
161	1.053070
162	1.062100
163	1.068550
164	1.076720
165	1.081880
166	1.087900
167	1.095210
168	1.101660
169	1.107250
170	1.115420
171	1.121870
172	1.129180
173	1.136060
174	1.142080
175	1.148960
176	1.155410
177	1.163580
178	1.170030
179	1.176480
180	1.183360
181	1.190240
182	1.198410
183	1.204860
184	1.211740
185	1.218190
186	1.225070
187	1.232380
188	1.238830
189	1.246140
190	1.252590
191	1.259470
192	1.266780
193	1.272800
194	1.279680
195	1.286990
196	1.294300
197	1.301610
198	1.308060
199	1.314940
200	1.321390
201	1.327840
202	1.335150
203	1.342030
204	1.348480
205	1.355360
206	1.361810
207	1.369550
208	1.376000
209	1.383310
210	1.390620
211	1.396210
212	1.403950
213	1.410830
214	1.417710
215	1.424160
216	1.431040
217	1.438780
218	1.445660
219	1.452540
220	1.459420
221	1.465870
222	1.472750
223	1.479630
224	1.486510
225	1.492960
226	1.500270
227	1.507580
228	1.514030
229	1.520910
230	1.527790
231	1.534670
232	1.541980
233	1.548860
234	1.555740
235	1.562190
236	1.569070
237	1.576380
238	1.583260
239	1.590140
240	1.597020
241	1.604330
242	1.610780
243	1.617660
244	1.624540
245	1.631420
246	1.638300
247	1.644750
248	1.652490
249	1.658940
250	1.665820
251	1.672270
252	1.680440
253	1.686460
254	1.694200
255	1.701940
